@g0 type logx 
@    xaxis  ticklabel format exponential
@    title "AL                  uc_examin"
@    subtitle "Electrons:  MFP to secondary electron interactions"
@    legend on
@    legend x1 0.6
@    legend y1 0.75
@    view xmin 0.250000
@    xaxis  label "kinetic energy / MeV"
@    yaxis  label "mean free path / cm"
@    legend string  0 "mfp to delta interaction"
@TYPE xy
@    s0 errorbar length 0.000000
@    s0 symbol color 1
     1.0011E-03     1.9750E-14
     1.2500E-03     1.9750E-14
     1.5000E-03     1.9750E-14
     1.7500E-03     1.9750E-14
     2.0000E-03     1.9750E-14
     2.5000E-03     2.8619E-04
     3.0000E-03     2.1712E-04
     3.5000E-03     2.0071E-04
     4.0000E-03     1.9750E-04
     4.5000E-03     1.9951E-04
     5.0000E-03     2.0412E-04
     5.5000E-03     2.1009E-04
     6.0000E-03     2.1704E-04
     7.0000E-03     2.3246E-04
     8.0000E-03     2.4910E-04
     9.0000E-03     2.6635E-04
     1.0000E-02     2.8394E-04
     1.2500E-02     3.2849E-04
     1.5000E-02     3.7314E-04
     1.7500E-02     4.1740E-04
     2.0000E-02     4.6122E-04
     2.5000E-02     5.4714E-04
     3.0000E-02     6.3070E-04
     3.5000E-02     7.1180E-04
     4.0000E-02     7.9070E-04
     4.5000E-02     8.6729E-04
     5.0000E-02     9.4180E-04
     5.5000E-02     1.0144E-03
     6.0000E-02     1.0848E-03
     7.0000E-02     1.2201E-03
     8.0000E-02     1.3485E-03
     9.0000E-02     1.4701E-03
     1.0000E-01     1.5857E-03
     1.2500E-01     1.8512E-03
     1.5000E-01     2.0860E-03
     1.7500E-01     2.2950E-03
     2.0000E-01     2.4822E-03
     2.5000E-01     2.8028E-03
     3.0000E-01     3.0645E-03
     3.5000E-01     3.2811E-03
     4.0000E-01     3.4631E-03
     4.5000E-01     3.6171E-03
     5.0000E-01     3.7492E-03
     5.5000E-01     3.8618E-03
     6.0000E-01     3.9605E-03
     7.0000E-01     4.1206E-03
     8.0000E-01     4.2456E-03
     9.0000E-01     4.3448E-03
     1.0000E+00     4.4249E-03
     1.2500E+00     4.5676E-03
     1.5000E+00     4.6600E-03
     1.7500E+00     4.7232E-03
     2.0000E+00     4.7679E-03
     2.5000E+00     4.8257E-03
     3.0000E+00     4.8600E-03
     3.5000E+00     4.8820E-03
     4.0000E+00     4.8967E-03
     4.5000E+00     4.9070E-03
     5.0000E+00     4.9144E-03
     5.5000E+00     4.9199E-03
     6.0000E+00     4.9240E-03
     7.0000E+00     4.9296E-03
     8.0000E+00     4.9331E-03
     9.0000E+00     4.9353E-03
     1.0000E+01     4.9367E-03
     1.0101E+01     4.9369E-03
&
